File: 62522001-to1-t_R.uxd
; (content of file E:\past\WYW\20230719ZHUANWENJIANGESHI\62522001-to1-t_R.raw)
_FILEVERSION = 2
_SAMPLE =
_+SAMPLE =
_SITE = China
_USER = Administrator
_GONIOMETER_CODE = 21
; Goniometer : D8 theta/theta, stage : Unknown
_SAMPLE_CHANGER_CODE = 0
_ATTACHMENTS_CODE = 0
_GONIOMETER_RADIUS = 250
_FIXED_DIVSLIT = 0.6
_FIXED_SAMPLESLIT = 0
_FIXED_DETSLIT = 24.08
_MONOCHROMATOR = 0
; Incident beam monochromator : None
_THIN_FILM = N
_BETA_FILTER = N
_FIXED_ANTISLIT = 15.17
_ANALYZER_CODE = 1
; Received beam analyzer : Graphite
_DATEMEASURED = "23-May-2023 16:31:50"
_WL_UNIT = A
_WL1 = 1.5406
_WL2 = 1.54439
_WL3 = 1.39222
_WLRATIO = 0.5
_ANODE = Cu

; Data for range 1
_DRIVE = PHI
_STEPTIME = 0.5
_STEPSIZE = 5
_STEPMODE = C
_START = 0
_THETA = 16.0115
_2THETA = 32.023
_KHI = 0
_PHI = 0
_X = 0
_Y = 0
_Z = 0
_DIVERGENCE = 0.2
_ANTISCATTER = 0.2
_DETECTOR = 1
; Detector type : Scintillation counter
_HV = 670
_GAIN = 80
_LLD = 0.69
_ULD = 1.768
_DETECTORSLIT = out
_AUX1 = 0
_AUX2 = 0
_AUX3 = 0
_TIMESTARTED = 10
_TEMP_RATE = 0
_TEMP_DELAY = 0
_KV = 40
_MA = 40
_RANGE_WL = 1.5406
_3DPLANE = 0
_V4_COUNTERS_MASK = 1
_V4_DRIVES_MASK = 0
_V4_ENCODERS_MASK = 0
_2THETACOUNTS = 1
; PHI  Cnt1_D1
   0.0000        203
   5.0000        183
  10.0000        193
  15.0000        211
  20.0000        208
  25.0000        213
  30.0000        209
  35.0000        197
  40.0000        175
  45.0000        177
  50.0000        201
  55.0000        175
  60.0000        180
  65.0000        187
  70.0000        185
  75.0000        167
  80.0000        177
  85.0000        164
  90.0000        178
  95.0000        183
 100.0000        182
 105.0000        172
 110.0000        194
 115.0000        196
 120.0000        168
 125.0000        210
 130.0000        225
 135.0000        135
 140.0000        167
 145.0000        179
 150.0000        176
 155.0000        152
 160.0000        161
 165.0000        188
 170.0000        191
 175.0000        189
 180.0000        187
 185.0000        189
 190.0000        216
 195.0000        183
 200.0000        160
 205.0000        198
 210.0000        211
 215.0000        193
 220.0000        208
 225.0000        204
 230.0000        222
 235.0000        180
 240.0000        219
 245.0000        220
 250.0000        229
 255.0000        226
 260.0000        192
 265.0000        224
 270.0000        251
 275.0000        230
 280.0000        215
 285.0000        212
 290.0000        205
 295.0000        252
 300.0000        209
 305.0000        211
 310.0000        197
 315.0000        199
 320.0000        198
 325.0000        218
 330.0000        220
 335.0000        188
 340.0000        213
 345.0000        215
 350.0000        206
 355.0000        186

; Data for range 2
_DRIVE = PHI
_STEPTIME = 0.5
_STEPSIZE = 5
_STEPMODE = C
_START = 0
_THETA = 16.0115
_2THETA = 32.023
_KHI = 5
_PHI = 0
_X = 0
_Y = 0
_Z = 0
_DIVERGENCE = 0.2
_ANTISCATTER = 0.2
_DETECTOR = 1
; Detector type : Scintillation counter
_HV = 670
_GAIN = 80
_LLD = 0.69
_ULD = 1.768
_DETECTORSLIT = out
_AUX1 = 0
_AUX2 = 0
_AUX3 = 0
_TIMESTARTED = 55
_TEMP_RATE = 0
_TEMP_DELAY = 0
_KV = 40
_MA = 40
_RANGE_WL = 1.5406
_3DPLANE = 0
_V4_COUNTERS_MASK = 1
_V4_DRIVES_MASK = 0
_V4_ENCODERS_MASK = 0
_2THETACOUNTS = 1
; PHI  Cnt1_D1
   0.0000        223
   5.0000        194
  10.0000        205
  15.0000        229
  20.0000        201
  25.0000        189
  30.0000        185
  35.0000        195
  40.0000        193
  45.0000        196
  50.0000        164
  55.0000        194
  60.0000        181
  65.0000        219
  70.0000        176
  75.0000        185
  80.0000        197
  85.0000        188
  90.0000        205
  95.0000        174
 100.0000        201
 105.0000        192
 110.0000        174
 115.0000        193
 120.0000        179
 125.0000        199
 130.0000        190
 135.0000        183
 140.0000        188
 145.0000        203
 150.0000        159
 155.0000        199
 160.0000        183
 165.0000        200
 170.0000        166
 175.0000        195
 180.0000        173
 185.0000        216
 190.0000        183
 195.0000        205
 200.0000        214
 205.0000        208
 210.0000        221
 215.0000        182
 220.0000        218
 225.0000        234
 230.0000        227
 235.0000        231
 240.0000        217
 245.0000        226
 250.0000        243
 255.0000        245
 260.0000        259
 265.0000        227
 270.0000        235
 275.0000        233
 280.0000        210
 285.0000        229
 290.0000        218
 295.0000        256
 300.0000        213
 305.0000        241
 310.0000        230
 315.0000        242
 320.0000        210
 325.0000        217
 330.0000        247
 335.0000        212
 340.0000        196
 345.0000        208
 350.0000        209
 355.0000        222

; Data for range 3
_DRIVE = PHI
_STEPTIME = 0.5
_STEPSIZE = 5
_STEPMODE = C
_START = 0
_THETA = 16.0115
_2THETA = 32.023
_KHI = 10
_PHI = 0
_X = 0
_Y = 0
_Z = 0
_DIVERGENCE = 0.2
_ANTISCATTER = 0.2
_DETECTOR = 1
; Detector type : Scintillation counter
_HV = 670
_GAIN = 80
_LLD = 0.69
_ULD = 1.768
_DETECTORSLIT = out
_AUX1 = 0
_AUX2 = 0
_AUX3 = 0
_TIMESTARTED = 100
_TEMP_RATE = 0
_TEMP_DELAY = 0
_KV = 40
_MA = 40
_RANGE_WL = 1.5406
_3DPLANE = 0
_V4_COUNTERS_MASK = 1
_V4_DRIVES_MASK = 0
_V4_ENCODERS_MASK = 0
_2THETACOUNTS = 1
; PHI  Cnt1_D1
   0.0000        198
   5.0000        200
  10.0000        192
  15.0000        184
  20.0000        217
  25.0000        189
  30.0000        191
  35.0000        190
  40.0000        205
  45.0000        208
  50.0000        211
  55.0000        208
  60.0000        237
  65.0000        198
  70.0000        199
  75.0000        186
  80.0000        198
  85.0000        207
  90.0000        228
  95.0000        193
 100.0000        263
 105.0000        208
 110.0000        243
 115.0000        205
 120.0000        187
 125.0000        203
 130.0000        191
 135.0000        210
 140.0000        180
 145.0000        160
 150.0000        191
 155.0000        174
 160.0000        205
 165.0000        202
 170.0000        199
 175.0000        165
 180.0000        195
 185.0000        185
 190.0000        181
 195.0000        226
 200.0000        178
 205.0000        225
 210.0000        239
 215.0000        212
 220.0000        229
 225.0000        260
 230.0000        216
 235.0000        239
 240.0000        235
 245.0000        242
 250.0000        251
 255.0000        250
 260.0000        275
 265.0000        293
 270.0000        289
 275.0000        277
 280.0000        282
 285.0000        246
 290.0000        265
 295.0000        275
 300.0000        257
 305.0000        270
 310.0000        234
 315.0000        267
 320.0000        246
 325.0000        235
 330.0000        226
 335.0000        248
 340.0000        225
 345.0000        234
 350.0000        198
 355.0000        187

; Data for range 4
_DRIVE = PHI
_STEPTIME = 0.5
_STEPSIZE = 5
_STEPMODE = C
_START = 0
_THETA = 16.0115
_2THETA = 32.023
_KHI = 15
_PHI = 0
_X = 0
_Y = 0
_Z = 0
_DIVERGENCE = 0.2
_ANTISCATTER = 0.2
_DETECTOR = 1
; Detector type : Scintillation counter
_HV = 670
_GAIN = 80
_LLD = 0.69
_ULD = 1.768
_DETECTORSLIT = out
_AUX1 = 0
_AUX2 = 0
_AUX3 = 0
_TIMESTARTED = 145
_TEMP_RATE = 0
_TEMP_DELAY = 0
_KV = 40
_MA = 40
_RANGE_WL = 1.5406
_3DPLANE = 0
_V4_COUNTERS_MASK = 1
_V4_DRIVES_MASK = 0
_V4_ENCODERS_MASK = 0
_2THETACOUNTS = 1
; PHI  Cnt1_D1
   0.0000        180
   5.0000        201
  10.0000        182
  15.0000        181
  20.0000        164
  25.0000        184
  30.0000        206
  35.0000        171
  40.0000        202
  45.0000        203
  50.0000        236
  55.0000        236
  60.0000        239
  65.0000        215
  70.0000        244
  75.0000        281
  80.0000        257
  85.0000        269
  90.0000        286
  95.0000        289
 100.0000        251
 105.0000        268
 110.0000        245
 115.0000        260
 120.0000        270
 125.0000        263
 130.0000        236
 135.0000        221
 140.0000        216
 145.0000        206
 150.0000        212
 155.0000        185
 160.0000        191
 165.0000        194
 170.0000        180
 175.0000        212
 180.0000        181
 185.0000        220
 190.0000        178
 195.0000        187
 200.0000        197
 205.0000        221
 210.0000        250
 215.0000        218
 220.0000        252
 225.0000        232
 230.0000        219
 235.0000        262
 240.0000        245
 245.0000        267
 250.0000        249
 255.0000        292
 260.0000        269
 265.0000        295
 270.0000        366
 275.0000        305
 280.0000        344
 285.0000        328
 290.0000        320
 295.0000        314
 300.0000        325
 305.0000        301
 310.0000        289
 315.0000        281
 320.0000        264
 325.0000        258
 330.0000        245
 335.0000        243
 340.0000        215
 345.0000        241
 350.0000        187
 355.0000        207

; Data for range 5
_DRIVE = PHI
_STEPTIME = 0.5
_STEPSIZE = 5
_STEPMODE = C
_START = 0
_THETA = 16.0115
_2THETA = 32.023
_KHI = 20
_PHI = 0
_X = 0
_Y = 0
_Z = 0
_DIVERGENCE = 0.2
_ANTISCATTER = 0.2
_DETECTOR = 1
; Detector type : Scintillation counter
_HV = 670
_GAIN = 80
_LLD = 0.69
_ULD = 1.768
_DETECTORSLIT = out
_AUX1 = 0
_AUX2 = 0
_AUX3 = 0
_TIMESTARTED = 190
_TEMP_RATE = 0
_TEMP_DELAY = 0
_KV = 40
_MA = 40
_RANGE_WL = 1.5406
_3DPLANE = 0
_V4_COUNTERS_MASK = 1
_V4_DRIVES_MASK = 0
_V4_ENCODERS_MASK = 0
_2THETACOUNTS = 1
; PHI  Cnt1_D1
   0.0000        172
   5.0000        178
  10.0000        170
  15.0000        160
  20.0000        182
  25.0000        186
  30.0000        193
  35.0000        191
  40.0000        215
  45.0000        271
  50.0000        268
  55.0000        246
  60.0000        260
  65.0000        305
  70.0000        283
  75.0000        370
  80.0000        341
  85.0000        343
  90.0000        349
  95.0000        318
 100.0000        338
 105.0000        337
 110.0000        346
 115.0000        371
 120.0000        301
 125.0000        323
 130.0000        324
 135.0000        292
 140.0000        267
 145.0000        247
 150.0000        222
 155.0000        197
 160.0000        207
 165.0000        191
 170.0000        184
 175.0000        188
 180.0000        173
 185.0000        164
 190.0000        193
 195.0000        165
 200.0000        210
 205.0000        215
 210.0000        206
 215.0000        213
 220.0000        227
 225.0000        237
 230.0000        267
 235.0000        289
 240.0000        330
 245.0000        301
 250.0000        319
 255.0000        310
 260.0000        398
 265.0000        437
 270.0000        400
 275.0000        391
 280.0000        409
 285.0000        412
 290.0000        402
 295.0000        396
 300.0000        390
 305.0000        360
 310.0000        356
 315.0000        333
 320.0000        318
 325.0000        302
 330.0000        253
 335.0000        218
 340.0000        213
 345.0000        221
 350.0000        189
 355.0000        199

; Data for range 6
_DRIVE = PHI
_STEPTIME = 0.5
_STEPSIZE = 5
_STEPMODE = C
_START = 0
_THETA = 16.0115
_2THETA = 32.023
_KHI = 25
_PHI = 0
_X = 0
_Y = 0
_Z = 0
_DIVERGENCE = 0.2
_ANTISCATTER = 0.2
_DETECTOR = 1
; Detector type : Scintillation counter
_HV = 670
_GAIN = 80
_LLD = 0.69
_ULD = 1.768
_DETECTORSLIT = out
_AUX1 = 0
_AUX2 = 0
_AUX3 = 0
_TIMESTARTED = 234
_TEMP_RATE = 0
_TEMP_DELAY = 0
_KV = 40
_MA = 40
_RANGE_WL = 1.5406
_3DPLANE = 0
_V4_COUNTERS_MASK = 1
_V4_DRIVES_MASK = 0
_V4_ENCODERS_MASK = 0
_2THETACOUNTS = 1
; PHI  Cnt1_D1
   0.0000        179
   5.0000        167
  10.0000        162
  15.0000        217
  20.0000        172
  25.0000        173
  30.0000        210
  35.0000        218
  40.0000        244
  45.0000        290
  50.0000        310
  55.0000        337
  60.0000        375
  65.0000        410
  70.0000        488
  75.0000        425
  80.0000        498
  85.0000        501
  90.0000        486
  95.0000        472
 100.0000        519
 105.0000        482
 110.0000        515
 115.0000        469
 120.0000        465
 125.0000        426
 130.0000        396
 135.0000        376
 140.0000        329
 145.0000        303
 150.0000        260
 155.0000        225
 160.0000        222
 165.0000        191
 170.0000        194
 175.0000        184
 180.0000        171
 185.0000        199
 190.0000        167
 195.0000        175
 200.0000        184
 205.0000        208
 210.0000        220
 215.0000        234
 220.0000        272
 225.0000        283
 230.0000        301
 235.0000        353
 240.0000        384
 245.0000        380
 250.0000        447
 255.0000        484
 260.0000        512
 265.0000        574
 270.0000        557
 275.0000        540
 280.0000        581
 285.0000        546
 290.0000        554
 295.0000        535
 300.0000        544
 305.0000        458
 310.0000        452
 315.0000        428
 320.0000        371
 325.0000        329
 330.0000        314
 335.0000        252
 340.0000        230
 345.0000        198
 350.0000        178
 355.0000        168

; Data for range 7
_DRIVE = PHI
_STEPTIME = 0.5
_STEPSIZE = 5
_STEPMODE = C
_START = 0
_THETA = 16.0115
_2THETA = 32.023
_KHI = 30
_PHI = 0
_X = 0
_Y = 0
_Z = 0
_DIVERGENCE = 0.2
_ANTISCATTER = 0.2
_DETECTOR = 1
; Detector type : Scintillation counter
_HV = 670
_GAIN = 80
_LLD = 0.69
_ULD = 1.768
_DETECTORSLIT = out
_AUX1 = 0
_AUX2 = 0
_AUX3 = 0
_TIMESTARTED = 279
_TEMP_RATE = 0
_TEMP_DELAY = 0
_KV = 40
_MA = 40
_RANGE_WL = 1.5406
_3DPLANE = 0
_V4_COUNTERS_MASK = 1
_V4_DRIVES_MASK = 0
_V4_ENCODERS_MASK = 0
_2THETACOUNTS = 1
; PHI  Cnt1_D1
   0.0000        144
   5.0000        156
  10.0000        166
  15.0000        165
  20.0000        161
  25.0000        169
  30.0000        223
  35.0000        268
  40.0000        307
  45.0000        372
  50.0000        417
  55.0000        507
  60.0000        516
  65.0000        636
  70.0000        634
  75.0000        575
  80.0000        639
  85.0000        610
  90.0000        606
  95.0000        605
 100.0000        569
 105.0000        628
 110.0000        609
 115.0000        603
 120.0000        578
 125.0000        549
 130.0000        569
 135.0000        467
 140.0000        464
 145.0000        310
 150.0000        284
 155.0000        273
 160.0000        210
 165.0000        222
 170.0000        177
 175.0000        163
 180.0000        172
 185.0000        170
 190.0000        146
 195.0000        172
 200.0000        151
 205.0000        197
 210.0000        206
 215.0000        249
 220.0000        305
 225.0000        350
 230.0000        394
 235.0000        457
 240.0000        554
 245.0000        617
 250.0000        614
 255.0000        636
 260.0000        635
 265.0000        676
 270.0000        620
 275.0000        669
 280.0000        680
 285.0000        680
 290.0000        750
 295.0000        720
 300.0000        710
 305.0000        640
 310.0000        635
 315.0000        585
 320.0000        499
 325.0000        451
 330.0000        371
 335.0000        306
 340.0000        244
 345.0000        207
 350.0000        180
 355.0000        168

; Data for range 8
_DRIVE = PHI
_STEPTIME = 0.5
_STEPSIZE = 5
_STEPMODE = C
_START = 0
_THETA = 16.0115
_2THETA = 32.023
_KHI = 35
_PHI = 0
_X = 0
_Y = 0
_Z = 0
_DIVERGENCE = 0.2
_ANTISCATTER = 0.2
_DETECTOR = 1
; Detector type : Scintillation counter
_HV = 670
_GAIN = 80
_LLD = 0.69
_ULD = 1.768
_DETECTORSLIT = out
_AUX1 = 0
_AUX2 = 0
_AUX3 = 0
_TIMESTARTED = 324
_TEMP_RATE = 0
_TEMP_DELAY = 0
_KV = 40
_MA = 40
_RANGE_WL = 1.5406
_3DPLANE = 0
_V4_COUNTERS_MASK = 1
_V4_DRIVES_MASK = 0
_V4_ENCODERS_MASK = 0
_2THETACOUNTS = 1
; PHI  Cnt1_D1
   0.0000        139
   5.0000        136
  10.0000        136
  15.0000        142
  20.0000        158
  25.0000        177
  30.0000        238
  35.0000        286
  40.0000        349
  45.0000        450
  50.0000        596
  55.0000        663
  60.0000        682
  65.0000        701
  70.0000        668
  75.0000        608
  80.0000        554
  85.0000        469
  90.0000        460
  95.0000        479
 100.0000        416
 105.0000        489
 110.0000        512
 115.0000        539
 120.0000        597
 125.0000        616
 130.0000        646
 135.0000        638
 140.0000        591
 145.0000        458
 150.0000        391
 155.0000        297
 160.0000        240
 165.0000        187
 170.0000        144
 175.0000        132
 180.0000        140
 185.0000        126
 190.0000        154
 195.0000        146
 200.0000        139
 205.0000        196
 210.0000        211
 215.0000        290
 220.0000        364
 225.0000        460
 230.0000        489
 235.0000        615
 240.0000        638
 245.0000        637
 250.0000        665
 255.0000        587
 260.0000        529
 265.0000        521
 270.0000        443
 275.0000        485
 280.0000        487
 285.0000        561
 290.0000        536
 295.0000        667
 300.0000        702
 305.0000        770
 310.0000        764
 315.0000        794
 320.0000        742
 325.0000        516
 330.0000        421
 335.0000        321
 340.0000        247
 345.0000        173
 350.0000        161
 355.0000        141

; Data for range 9
_DRIVE = PHI
_STEPTIME = 0.5
_STEPSIZE = 5
_STEPMODE = C
_START = 0
_THETA = 16.0115
_2THETA = 32.023
_KHI = 40
_PHI = 0
_X = 0
_Y = 0
_Z = 0
_DIVERGENCE = 0.2
_ANTISCATTER = 0.2
_DETECTOR = 1
[...]
_KV = 40
_MA = 40
_RANGE_WL = 1.5406
_3DPLANE = 0
_V4_COUNTERS_MASK = 1
_V4_DRIVES_MASK = 0
_V4_ENCODERS_MASK = 0
_2THETACOUNTS = 1
; PHI  Cnt1_D1
   0.0000        860

; Data for range 211
_DRIVE = PHI
_STEPTIME = 5
_STEPSIZE = 5
_STEPMODE = S
_START = 0
_THETA = 29.145
_2THETA = 58.29
_KHI = 0
_PHI = 0
_X = 0
_Y = 0
_Z = 0
_DIVERGENCE = 0.2
_ANTISCATTER = 0.2
_DETECTOR = 1
; Detector type : Scintillation counter
_HV = 670
_GAIN = 80
_LLD = 0.69
_ULD = 1.768
_DETECTORSLIT = out
_AUX1 = 0
_AUX2 = 0
_AUX3 = 0
_TIMESTARTED = 4956
_TEMP_RATE = 0
_TEMP_DELAY = 0
_KV = 40
_MA = 40
_RANGE_WL = 1.5406
_3DPLANE = 0
_V4_COUNTERS_MASK = 1
_V4_DRIVES_MASK = 0
_V4_ENCODERS_MASK = 0
_2THETACOUNTS = 1
; PHI  Cnt1_D1
   0.0000        653

; Data for range 212
_DRIVE = PHI
_STEPTIME = 5
_STEPSIZE = 5
_STEPMODE = S
_START = 0
_THETA = 29.145
_2THETA = 58.29
_KHI = 5
_PHI = 0
_X = 0
_Y = 0
_Z = 0
_DIVERGENCE = 0.2
_ANTISCATTER = 0.2
_DETECTOR = 1
; Detector type : Scintillation counter
_HV = 670
_GAIN = 80
_LLD = 0.69
_ULD = 1.768
_DETECTORSLIT = out
_AUX1 = 0
_AUX2 = 0
_AUX3 = 0
_TIMESTARTED = 4965
_TEMP_RATE = 0
_TEMP_DELAY = 0
_KV = 40
_MA = 40
_RANGE_WL = 1.5406
_3DPLANE = 0
_V4_COUNTERS_MASK = 1
_V4_DRIVES_MASK = 0
_V4_ENCODERS_MASK = 0
_2THETACOUNTS = 1
; PHI  Cnt1_D1
   0.0000        633

; Data for range 213
_DRIVE = PHI
_STEPTIME = 5
_STEPSIZE = 5
_STEPMODE = S
_START = 0
_THETA = 29.145
_2THETA = 58.29
_KHI = 10
_PHI = 0
_X = 0
_Y = 0
_Z = 0
_DIVERGENCE = 0.2
_ANTISCATTER = 0.2
_DETECTOR = 1
; Detector type : Scintillation counter
_HV = 670
_GAIN = 80
_LLD = 0.69
_ULD = 1.768
_DETECTORSLIT = out
_AUX1 = 0
_AUX2 = 0
_AUX3 = 0
_TIMESTARTED = 4975
_TEMP_RATE = 0
_TEMP_DELAY = 0
_KV = 40
_MA = 40
_RANGE_WL = 1.5406
_3DPLANE = 0
_V4_COUNTERS_MASK = 1
_V4_DRIVES_MASK = 0
_V4_ENCODERS_MASK = 0
_2THETACOUNTS = 1
; PHI  Cnt1_D1
   0.0000        630

; Data for range 214
_DRIVE = PHI
_STEPTIME = 5
_STEPSIZE = 5
_STEPMODE = S
_START = 0
_THETA = 29.145
_2THETA = 58.29
_KHI = 15
_PHI = 0
_X = 0
_Y = 0
_Z = 0
_DIVERGENCE = 0.2
_ANTISCATTER = 0.2
_DETECTOR = 1
; Detector type : Scintillation counter
_HV = 670
_GAIN = 80
_LLD = 0.69
_ULD = 1.768
_DETECTORSLIT = out
_AUX1 = 0
_AUX2 = 0
_AUX3 = 0
_TIMESTARTED = 4987
_TEMP_RATE = 0
_TEMP_DELAY = 0
_KV = 40
_MA = 40
_RANGE_WL = 1.5406
_3DPLANE = 0
_V4_COUNTERS_MASK = 1
_V4_DRIVES_MASK = 0
_V4_ENCODERS_MASK = 0
_2THETACOUNTS = 1
; PHI  Cnt1_D1
   0.0000        651

; Data for range 215
_DRIVE = PHI
_STEPTIME = 5
_STEPSIZE = 5
_STEPMODE = S
_START = 0
_THETA = 29.145
_2THETA = 58.29
_KHI = 20
_PHI = 0
_X = 0
_Y = 0
_Z = 0
_DIVERGENCE = 0.2
_ANTISCATTER = 0.2
_DETECTOR = 1
; Detector type : Scintillation counter
_HV = 670
_GAIN = 80
_LLD = 0.69
_ULD = 1.768
_DETECTORSLIT = out
_AUX1 = 0
_AUX2 = 0
_AUX3 = 0
_TIMESTARTED = 4996
_TEMP_RATE = 0
_TEMP_DELAY = 0
_KV = 40
_MA = 40
_RANGE_WL = 1.5406
_3DPLANE = 0
_V4_COUNTERS_MASK = 1
_V4_DRIVES_MASK = 0
_V4_ENCODERS_MASK = 0
_2THETACOUNTS = 1
; PHI  Cnt1_D1
   0.0000        630

; Data for range 216
_DRIVE = PHI
_STEPTIME = 5
_STEPSIZE = 5
_STEPMODE = S
_START = 0
_THETA = 29.145
_2THETA = 58.29
_KHI = 25
_PHI = 0
_X = 0
_Y = 0
_Z = 0
_DIVERGENCE = 0.2
_ANTISCATTER = 0.2
_DETECTOR = 1
; Detector type : Scintillation counter
_HV = 670
_GAIN = 80
_LLD = 0.69
_ULD = 1.768
_DETECTORSLIT = out
_AUX1 = 0
_AUX2 = 0
_AUX3 = 0
_TIMESTARTED = 5007
_TEMP_RATE = 0
_TEMP_DELAY = 0
_KV = 40
_MA = 40
_RANGE_WL = 1.5406
_3DPLANE = 0
_V4_COUNTERS_MASK = 1
_V4_DRIVES_MASK = 0
_V4_ENCODERS_MASK = 0
_2THETACOUNTS = 1
; PHI  Cnt1_D1
   0.0000        656

; Data for range 217
_DRIVE = PHI
_STEPTIME = 5
_STEPSIZE = 5
_STEPMODE = S
_START = 0
_THETA = 29.145
_2THETA = 58.29
_KHI = 30
_PHI = 0
_X = 0
_Y = 0
_Z = 0
_DIVERGENCE = 0.2
_ANTISCATTER = 0.2
_DETECTOR = 1
; Detector type : Scintillation counter
_HV = 670
_GAIN = 80
_LLD = 0.69
_ULD = 1.768
_DETECTORSLIT = out
_AUX1 = 0
_AUX2 = 0
_AUX3 = 0
_TIMESTARTED = 5016
_TEMP_RATE = 0
_TEMP_DELAY = 0
_KV = 40
_MA = 40
_RANGE_WL = 1.5406
_3DPLANE = 0
_V4_COUNTERS_MASK = 1
_V4_DRIVES_MASK = 0
_V4_ENCODERS_MASK = 0
_2THETACOUNTS = 1
; PHI  Cnt1_D1
   0.0000        625

; Data for range 218
_DRIVE = PHI
_STEPTIME = 5
_STEPSIZE = 5
_STEPMODE = S
_START = 0
_THETA = 29.145
_2THETA = 58.29
_KHI = 35
_PHI = 0
_X = 0
_Y = 0
_Z = 0
_DIVERGENCE = 0.2
_ANTISCATTER = 0.2
_DETECTOR = 1
; Detector type : Scintillation counter
_HV = 670
_GAIN = 80
_LLD = 0.69
_ULD = 1.768
_DETECTORSLIT = out
_AUX1 = 0
_AUX2 = 0
_AUX3 = 0
_TIMESTARTED = 5027
_TEMP_RATE = 0
_TEMP_DELAY = 0
_KV = 40
_MA = 40
_RANGE_WL = 1.5406
_3DPLANE = 0
_V4_COUNTERS_MASK = 1
_V4_DRIVES_MASK = 0
_V4_ENCODERS_MASK = 0
_2THETACOUNTS = 1
; PHI  Cnt1_D1
   0.0000        655

; Data for range 219
_DRIVE = PHI
_STEPTIME = 5
_STEPSIZE = 5
_STEPMODE = S
_START = 0
_THETA = 29.145
_2THETA = 58.29
_KHI = 40
_PHI = 0
_X = 0
_Y = 0
_Z = 0
_DIVERGENCE = 0.2
_ANTISCATTER = 0.2
_DETECTOR = 1
; Detector type : Scintillation counter
_HV = 670
_GAIN = 80
_LLD = 0.69
_ULD = 1.768
_DETECTORSLIT = out
_AUX1 = 0
_AUX2 = 0
_AUX3 = 0
_TIMESTARTED = 5037
_TEMP_RATE = 0
_TEMP_DELAY = 0
_KV = 40
_MA = 40
_RANGE_WL = 1.5406
_3DPLANE = 0
_V4_COUNTERS_MASK = 1
_V4_DRIVES_MASK = 0
_V4_ENCODERS_MASK = 0
_2THETACOUNTS = 1
; PHI  Cnt1_D1
   0.0000        692

; Data for range 220
_DRIVE = PHI
_STEPTIME = 5
_STEPSIZE = 5
_STEPMODE = S
_START = 0
_THETA = 29.145
_2THETA = 58.29
_KHI = 45
_PHI = 0
_X = 0
_Y = 0
_Z = 0
_DIVERGENCE = 0.2
_ANTISCATTER = 0.2
_DETECTOR = 1
; Detector type : Scintillation counter
_HV = 670
_GAIN = 80
_LLD = 0.69
_ULD = 1.768
_DETECTORSLIT = out
_AUX1 = 0
_AUX2 = 0
_AUX3 = 0
_TIMESTARTED = 5048
_TEMP_RATE = 0
_TEMP_DELAY = 0
_KV = 40
_MA = 40
_RANGE_WL = 1.5406
_3DPLANE = 0
_V4_COUNTERS_MASK = 1
_V4_DRIVES_MASK = 0
_V4_ENCODERS_MASK = 0
_2THETACOUNTS = 1
; PHI  Cnt1_D1
   0.0000        678

; Data for range 221
_DRIVE = PHI
_STEPTIME = 5
_STEPSIZE = 5
_STEPMODE = S
_START = 0
_THETA = 29.145
_2THETA = 58.29
_KHI = 50
_PHI = 0
_X = 0
_Y = 0
_Z = 0
_DIVERGENCE = 0.2
_ANTISCATTER = 0.2
_DETECTOR = 1
; Detector type : Scintillation counter
_HV = 670
_GAIN = 80
_LLD = 0.69
_ULD = 1.768
_DETECTORSLIT = out
_AUX1 = 0
_AUX2 = 0
_AUX3 = 0
_TIMESTARTED = 5058
_TEMP_RATE = 0
_TEMP_DELAY = 0
_KV = 40
_MA = 40
_RANGE_WL = 1.5406
_3DPLANE = 0
_V4_COUNTERS_MASK = 1
_V4_DRIVES_MASK = 0
_V4_ENCODERS_MASK = 0
_2THETACOUNTS = 1
; PHI  Cnt1_D1
   0.0000        681

; Data for range 222
_DRIVE = PHI
_STEPTIME = 5
_STEPSIZE = 5
_STEPMODE = S
_START = 0
_THETA = 29.145
_2THETA = 58.29
_KHI = 55
_PHI = 0
_X = 0
_Y = 0
_Z = 0
_DIVERGENCE = 0.2
_ANTISCATTER = 0.2
_DETECTOR = 1
; Detector type : Scintillation counter
_HV = 670
_GAIN = 80
_LLD = 0.69
_ULD = 1.768
_DETECTORSLIT = out
_AUX1 = 0
_AUX2 = 0
_AUX3 = 0
_TIMESTARTED = 5067
_TEMP_RATE = 0
_TEMP_DELAY = 0
_KV = 40
_MA = 40
_RANGE_WL = 1.5406
_3DPLANE = 0
_V4_COUNTERS_MASK = 1
_V4_DRIVES_MASK = 0
_V4_ENCODERS_MASK = 0
_2THETACOUNTS = 1
; PHI  Cnt1_D1
   0.0000        662

; Data for range 223
_DRIVE = PHI
_STEPTIME = 5
_STEPSIZE = 5
_STEPMODE = S
_START = 0
_THETA = 29.145
_2THETA = 58.29
_KHI = 60
_PHI = 0
_X = 0
_Y = 0
_Z = 0
_DIVERGENCE = 0.2
_ANTISCATTER = 0.2
_DETECTOR = 1
; Detector type : Scintillation counter
_HV = 670
_GAIN = 80
_LLD = 0.69
_ULD = 1.768
_DETECTORSLIT = out
_AUX1 = 0
_AUX2 = 0
_AUX3 = 0
_TIMESTARTED = 5078
_TEMP_RATE = 0
_TEMP_DELAY = 0
_KV = 40
_MA = 40
_RANGE_WL = 1.5406
_3DPLANE = 0
_V4_COUNTERS_MASK = 1
_V4_DRIVES_MASK = 0
_V4_ENCODERS_MASK = 0
_2THETACOUNTS = 1
; PHI  Cnt1_D1
   0.0000        588

; Data for range 224
_DRIVE = PHI
_STEPTIME = 5
_STEPSIZE = 5
_STEPMODE = S
_START = 0
_THETA = 29.145
_2THETA = 58.29
_KHI = 65
_PHI = 0
_X = 0
_Y = 0
_Z = 0
_DIVERGENCE = 0.2
_ANTISCATTER = 0.2
_DETECTOR = 1
; Detector type : Scintillation counter
_HV = 670
_GAIN = 80
_LLD = 0.69
_ULD = 1.768
_DETECTORSLIT = out
_AUX1 = 0
_AUX2 = 0
_AUX3 = 0
_TIMESTARTED = 5088
_TEMP_RATE = 0
_TEMP_DELAY = 0
_KV = 40
_MA = 40
_RANGE_WL = 1.5406
_3DPLANE = 0
_V4_COUNTERS_MASK = 1
_V4_DRIVES_MASK = 0
_V4_ENCODERS_MASK = 0
_2THETACOUNTS = 1
; PHI  Cnt1_D1
   0.0000        542

; Data for range 225
_DRIVE = PHI
_STEPTIME = 5
_STEPSIZE = 5
_STEPMODE = S
_START = 0
_THETA = 29.145
_2THETA = 58.29
_KHI = 70
_PHI = 0
_X = 0
_Y = 0
_Z = 0
_DIVERGENCE = 0.2
_ANTISCATTER = 0.2
_DETECTOR = 1
; Detector type : Scintillation counter
_HV = 670
_GAIN = 80
_LLD = 0.69
_ULD = 1.768
_DETECTORSLIT = out
_AUX1 = 0
_AUX2 = 0
_AUX3 = 0
_TIMESTARTED = 5097
_TEMP_RATE = 0
_TEMP_DELAY = 0
_KV = 40
_MA = 40
_RANGE_WL = 1.5406
_3DPLANE = 0
_V4_COUNTERS_MASK = 1
_V4_DRIVES_MASK = 0
_V4_ENCODERS_MASK = 0
_2THETACOUNTS = 1
; PHI  Cnt1_D1
   0.0000        470