File: T12-RT-1.uxd
;content of C:\Users\USER\AppData\Local\Temp\92fetmp-1501843503.raw - (Diffrac Plus V4 file)
_FILEVERSION = 3
_SAMPLE
_+SAMPLE
_USER = Lab Manager
_GONIOMETER_CODE = 20
_STAGE_CODE = 4
; Goniometer : D8 theta/2theta, stage : Open eulerian craddle
_SAMPLE_CHANGER_CODE = 0
_ATTACHMENTS_CODE = 0
_GONIOMETER_RADIUS = 370
_MONOCHROMATOR = 0
; Incident beam monochromator : None
_BETA_FILTER = N
_FIXED_ANTISLIT = 18
_ANALYZER_CODE = 0
; Received beam analyzer : None
_DATEMEASURED = 10-Oct-2024 09:13:58
_RUNTIME = 19492.83
_WL_UNIT = A
_WL1 = 2.2897
_WL2 = 2.29361
_WL3 = 2.08487
_WLRATIO = 0.5
_ANODE = Cr
_V4_INF_USER = Lab Manager
_V4_INF_CREATOR = BrmlToV4Converter
_V4_INF_CREATOR_VERSION = 7.5.2.0
_V4_INF_WIZARD_PLUGIN_TYPE = TEXTURE
_V4_INF_TEXTURE_MEAS_GUID = 83aa8a6d-6486-4ad4-8325-fad7fa860a92
_V4_INF_TEXTURE_MEAS_ID = 1729179246

;content of C:\Users\USER\AppData\Local\Temp\92fetmp-1501843503.raw - (Diffrac Plus V4 file)
_FILEVERSION = 3
_SAMPLE
_+SAMPLE
_USER = Lab Manager
_GONIOMETER_CODE = 20
_STAGE_CODE = 4
; Goniometer : D8 theta/2theta, stage : Open eulerian craddle
_SAMPLE_CHANGER_CODE = 0
_ATTACHMENTS_CODE = 0
_GONIOMETER_RADIUS = 370
_MONOCHROMATOR = 0
; Incident beam monochromator : None
_BETA_FILTER = N
_FIXED_ANTISLIT = 18
_ANALYZER_CODE = 0
; Received beam analyzer : None
_DATEMEASURED = 10-Oct-2024 09:13:58
_RUNTIME = 19492.83
_WL_UNIT = A
_WL1 = 2.2897
_WL2 = 2.29361
_WL3 = 2.08487
_WLRATIO = 0.5
_ANODE = Cr
_V4_INF_USER = Lab Manager
_V4_INF_CREATOR = BrmlToV4Converter
_V4_INF_CREATOR_VERSION = 7.5.2.0
_V4_INF_WIZARD_PLUGIN_TYPE = TEXTURE
_V4_INF_TEXTURE_MEAS_GUID = 83aa8a6d-6486-4ad4-8325-fad7fa860a92
_V4_INF_TEXTURE_MEAS_ID = 1729179246

; Data for range 1
_DRIVE = COUPLED
_STEPTIME = 3
_STEPSIZE = 5
_STEPMODE = C
_START = 0
_THETA = 24.15
_2THETA = 48.3
_KHI = 0
_PHI = 0
_X = 10.5
_Y = -26
_Z = 0.5
_DETECTORSLIT = out
_TIMESTARTED = 0
_KV = 30
_MA = 40
_RANGE_WL = 2.2897
_3DPLANE = 0
_V4_PSD2THETA = 9999
_V4_PSDCHANNEL1 = 0
_V4_PSDAPERTURE = 6.075
_V4_PSDTYPE = 5
_V4_PSDFIXED = 0
_V4_COUNTERS_MASK = 1
_V4_DRIVES_MASK = 0
_V4_ENCODERS_MASK = 0
_2THETACOUNTS = 1
; 2THETA	Cnt2_D1
0.000000	20880.8
5.000000	21051.52
10	20904.28
15	20703.04
20	20817.8
25	20934.56
30	20756.32
35	20691.08
40	20478.84
45	20353.6
50	19796.36
55	19459.12
60	19197.88
65	18783.64
70	18366.4
75	18117.16
80	17977.92
85	17678.68
90	17469.44
95	17572.2
100	17537.96
105	17573.72
110	17919.48
115	18027.2
120	18419.0
125	18839.8
130	19642.52
135	19844.28
140	20373.04
145	20411.8
150	20718.56
155	21027.32
160	21469.08
165	21694.84
170	21822.6
175	21963.36
180	22296.12
185	22616.88
190	22616.64
195	22202.4
200	22318.16
205	22790.92
210	22392.68
215	22566.44
220	22609.2
225	22752.96
230	22703.72
235	22100.48
240	21935.2
245	21523.0
250	21280.8
255	20717.52
260	20365.28
265	20127.04
270	19967.8
275	19892.56
280	19815.32
285	20123.08
290	19924.84
295	20417.6
300	20743.36
305	21024.12
310	21232.88
315	21434.64
320	21827.4
325	22094.16
330	22095.92
335	21883.68
340	21687.44
345	21320.2
350	21345.96
355	21583.72

; Data for range 4
_DRIVE = COUPLED
_STEPTIME = 3
_STEPSIZE = 5
_STEPMODE = C
_START = 0
_THETA = 24.15
_2THETA = 48.3
_KHI = 5
_PHI = 0
_X = 10.5
_Y = -26
_Z = 0.5
_DETECTORSLIT = out
_TIMESTARTED = 246.4798
_KV = 30
_MA = 40
_RANGE_WL = 2.2897
_3DPLANE = 0
_V4_PSD2THETA = 9999
_V4_PSDCHANNEL1 = 0
_V4_PSDAPERTURE = 6.075
_V4_PSDTYPE = 5
_V4_PSDFIXED = 0
_V4_COUNTERS_MASK = 1
_V4_DRIVES_MASK = 0
_V4_ENCODERS_MASK = 0
_2THETACOUNTS = 1
; 2THETA	Cnt2_D1
0.000000	16959.7
5.000000	16280.5
10	16392.2
15	15576
20	15121.7
25	14743.48
30	14245.2
35	13650
40	13489.7
45	12903.5
50	12469.2
55	12220.96
60	11893.7
65	11752.5
70	11348.2
75	11053.9
80	11001.7
85	11158.4
90	10764.2
95	10987.9
100	11088.68
105	11313.4
110	11542.2
115	11737.92
120	12190.7
125	12918.4
130	13560.16
135	13665.9
140	13682.7
145	13903.4
150	14091.1
155	14164.9
160	14337.64
165	14222.4
170	14345.1
175	14003.9
180	14176.6
185	14878.4
190	14700.1
195	14980.9
200	15599.6
205	16167.36
210	16896.1
215	17585.9
220	18245.6
225	18696.3
230	18227.1
235	18393.84
240	18091.6
245	17826.3
250	17584.08
255	17344.8
260	16925.6
265	16432.32
270	16277.1
275	16486.8
280	16041.6
285	16271.3
290	16583.1
295	16674.8
300	16888.5
305	16914.3
310	17077.04
315	17012.8
320	17294.5
325	17180.28
330	17590
335	17306.8
340	17440.52
345	17407.3
350	17390
355	17609.8

; Data for range 7
_DRIVE = COUPLED
_STEPTIME = 3
_STEPSIZE = 5
_STEPMODE = C
_START = 0
_THETA = 24.15
_2THETA = 48.3
_KHI = 10
_PHI = 0
_X = 10.5
_Y = -26
_Z = 0.5
_DETECTORSLIT = out
_TIMESTARTED = 488.1343
_KV = 30
_MA = 40
_RANGE_WL = 2.2897
_3DPLANE = 0
_V4_PSD2THETA = 9999
_V4_PSDCHANNEL1 = 0
_V4_PSDAPERTURE = 6.075
_V4_PSDTYPE = 5
_V4_PSDFIXED = 0
_V4_COUNTERS_MASK = 1
_V4_DRIVES_MASK = 0
_V4_ENCODERS_MASK = 0
_2THETACOUNTS = 1
; 2THETA	Cnt2_D1
0.000000	8110.16
5.000000	8069.32
10	7810.48
15	7404.64
20	7194.8
25	6984.96
30	6929.12
35	6577.28
40	6441.44
45	6412.6
50	6165.76
55	6063.92
60	6226.08
65	6099.24
70	6100.4
75	6046.56
80	6446.72
85	5902.88
90	6120.04
95	6091.2
100	6294.36
105	6192.52
110	6604.68
115	6827.84
120	6905.0
125	6730.16
130	7124.32
135	7304.48
140	7295.64
145	7280.8
150	7201.96
155	7178.12
160	7468.28
165	7320.44
170	7301.6
175	7291.76
180	7172.92
185	7418.08
190	7753.24
195	8000.4
200	8410.56
205	8635.72
210	9332.88
215	9809.04
220	10220.2
225	10313.36
230	10530.52
235	10391.68
240	9929.84
245	9955.0
250	9720.16
255	9209.32
260	9109.48
265	9032.64
270	8785.8
275	8914.96
280	8770.12
285	8554.28
290	8583.44
295	8674.6
300	8619.76
305	8498.92
310	8551.08
315	8529.24
320	8304.4
325	8594.56
330	8328.72
335	8499.88
340	8298.04
345	8279.2
350	8412.36
355	8284.52

; Data for range 10
_DRIVE = COUPLED
_STEPTIME = 3
_STEPSIZE = 5
_STEPMODE = C
_START = 0
_THETA = 24.15
_2THETA = 48.3
_KHI = 15
_PHI = 0
_X = 10.5
_Y = -26
_Z = 0.5
_DETECTORSLIT = out
_TIMESTARTED = 729.9398
_KV = 30
_MA = 40
_RANGE_WL = 2.2897
_3DPLANE = 0
_V4_PSD2THETA = 9999
_V4_PSDCHANNEL1 = 0
_V4_PSDAPERTURE = 6.075
_V4_PSDTYPE = 5
_V4_PSDFIXED = 0
_V4_COUNTERS_MASK = 1
_V4_DRIVES_MASK = 0
_V4_ENCODERS_MASK = 0
_2THETACOUNTS = 1
; 2THETA	Cnt2_D1
0.000000	4106.11
5.000000	4040.21
10	3859.32
15	4027.43
20	3844.53
25	3895.64
30	3792.75
35	3803.85
40	3690.96
45	3908.07
50	3752.17
55	3932.28
60	3787.39
65	3555.49
70	3881.6
75	3674.71
80	3814.81
85	3766.92
90	3745.03
95	3807.13
100	3902.24
105	3830.35
110	3904.45
115	3951.56
120	3776.67
125	3814.77
130	4060.88
135	3881.99
140	3784.09
145	3681.2
150	3789.31
155	3747.41
160	3990.52
165	4010.63
170	3906.73
175	4111.84
180	4128.95
185	4097.05
190	3633.16
195	3708.27
200	3615.37
205	3934.48
210	4207.59
215	4486.69
220	4812.8
225	4741.91
230	5029.01
235	5036.12
240	4855.23
245	4905.33
250	4874.44
255	4848.55
260	4842.65
265	4606.76
270	4505.87
275	4439.97
280	4400.08
285	4583.19
290	4600.29
295	4698.4
300	4243.51
305	4271.61
310	4232.72
315	4351.83
320	4194.93
325	4257.04
330	4078.15
335	4213.25
340	3994.36
345	4324.47
350	4151.57
355	4276.68

; Data for range 13
_DRIVE = COUPLED
_STEPTIME = 3
_STEPSIZE = 5
_STEPMODE = C
_START = 0
_THETA = 24.15
_2THETA = 48.3
_KHI = 20
_PHI = 0
_X = 10.5
_Y = -26
_Z = 0.5
_DETECTORSLIT = out
_TIMESTARTED = 971.6857
_KV = 30
_MA = 40
_RANGE_WL = 2.2897
_3DPLANE = 0
_V4_PSD2THETA = 9999
_V4_PSDCHANNEL1 = 0
_V4_PSDAPERTURE = 6.075
_V4_PSDTYPE = 5
_V4_PSDFIXED = 0
_V4_COUNTERS_MASK = 1
_V4_DRIVES_MASK = 0
_V4_ENCODERS_MASK = 0
_2THETACOUNTS = 1
; 2THETA	Cnt2_D1
0.000000	2187.77
5.000000	2260.55
10	2254.32
15	2076.09
20	2286.87
25	2375.64
30	2124.41
35	2226.19
40	2073.96
45	2261.73
50	2046.51
55	2158.28
60	1963.05
65	1963.83
70	1938.6
75	1838.37
80	1932.15
85	1996.92
90	2138.69
95	2093.47
100	1907.24
105	2013.01
110	2069.79
115	1919.56
120	2111.33
125	2133.11
130	1930.88
135	2064.65
140	1969.43
145	1950.2
150	2121.97
155	2442.75
160	2400.52
165	2377.29
170	2638.07
175	2418.84
180	2498.61
185	2354.39
190	2062.16
195	1982.93
200	1669.71
205	1821.48
210	1713.25
215	1901.03
220	2002.8
225	2245.57
230	2196.35
235	2359.12
240	2410.89
245	2347.67
250	2504.44
255	2353.21
260	2612.99
265	2550.76
270	2607.53
275	2571.31
280	2270.08
285	2469.85
290	2383.63
295	2414.4
300	2435.17
305	2318.95
310	2244.72
315	2279.49
320	2426.27
325	2273.04
330	2464.81
335	2291.59
340	2270.36
345	2530.13
350	2692.91
355	2528.68

; Data for range 16
_DRIVE = COUPLED
_STEPTIME = 3
_STEPSIZE = 5
_STEPMODE = C
_START = 0
_THETA = 24.15
_2THETA = 48.3
_KHI = 25
_PHI = 0
_X = 10.5
_Y = -26
_Z = 0.5
_DETECTORSLIT = out
_TIMESTARTED = 1213.915
_KV = 30
_MA = 40
_RANGE_WL = 2.2897
_3DPLANE = 0
_V4_PSD2THETA = 9999
_V4_PSDCHANNEL1 = 0
_V4_PSDAPERTURE = 6.075
_V4_PSDTYPE = 5
_V4_PSDFIXED = 0
_V4_COUNTERS_MASK = 1
_V4_DRIVES_MASK = 0
_V4_ENCODERS_MASK = 0
_2THETACOUNTS = 1
; 2THETA	Cnt2_D1
0.000000	1211.92
5.000000	1380.84
10	1271.76
15	1232.68
20	1404.6
25	1224.52
30	1375.44
35	1183.36
40	1070.28
45	1091.2
50	983.12
55	858.04
60	1190.96
65	828.88
70	946.8
75	787.72
80	919.64
85	767.56
90	855.48
95	867.4
100	755.32
105	848.24
110	956.16
115	930.08
120	993.0
125	1162.92
130	1051.84
135	1073.76
140	1229.68
145	1112.6
150	1343.52
155	1469.44
160	1673.36
165	1919.28
170	1741.2
175	1768.12
180	1717.04
185	1350.96
190	1135.88
195	961.8
200	910.72
205	1040.64
210	900.56
215	875.48
220	721.4
225	939.32
230	1029.24
235	895.16
240	1107.08
245	1082.0
250	1047.92
255	1141.84
260	1182.76
265	1174.68
270	1079.6
275	1034.52
280	1087.44
285	1091.36
290	1217.28
295	1138.2
300	1042.12
305	1171.04
310	1301.96
315	1221.88
320	1476.8
325	1387.72
330	1520.64
335	1565.56
340	1686.48
345	1723.4
350	1761.32
355	1812.24

; Data for range 19
_DRIVE = COUPLED
_STEPTIME = 3
_STEPSIZE = 5
_STEPMODE = C
_START = 0
_THETA = 24.15
_2THETA = 48.3
_KHI = 30
_PHI = 0
_X = 10.5
_Y = -26
_Z = 0.5
_DETECTORSLIT = out
_TIMESTARTED = 1455.483
_KV = 30
_MA = 40
_RANGE_WL = 2.2897
_3DPLANE = 0
_V4_PSD2THETA = 9999
_V4_PSDCHANNEL1 = 0
_V4_PSDAPERTURE = 6.075
_V4_PSDTYPE = 5
_V4_PSDFIXED = 0
_V4_COUNTERS_MASK = 1
_V4_DRIVES_MASK = 0
_V4_ENCODERS_MASK = 0
_2THETACOUNTS = 1
; 2THETA	Cnt2_D1
0.000000	593.96
5.000000	637.92
10	519.88
15	436.84
20	468.8
25	442.76
30	298.72
35	408.68
40	477.64
45	430.6
50	272.56
55	196.52
60	78.48
65	0
70	122.4
75	120.36
80	289.32
85	162.28
90	250.24
95	206.2
100	124.16
105	225.12
110	268.08
115	446.04
120	310.0
125	354.96
130	498.92
135	245.88
140	542.84
145	719.8
150	925.76
155	1017.72
160	1311.68
165	1350.64
170	1255.6
175	1241.56
180	1173.52
185	889.48
190	468.44
195	336.4
200	313.36
205	351.32
210	302.28
215	239.24
220	475.2
225	288.16
230	429.12
235	310.08
240	384.04
245	533.0
250	374.96
255	501.92
260	438.88
265	684.84
270	640.8
275	541.76
280	653.72
285	482.68
290	628.64
295	612.6
300	680.56
305	710.52
310	927.48
315	944.44
320	1115.4
325	900.36
330	1009.32
335	1269.28
340	1200.24
345	1303.2
350	1575.16
355	1524.12

; Data for range 22
_DRIVE = COUPLED
_STEPTIME = 3
_STEPSIZE = 5
_STEPMODE = C
_START = 0
_THETA = 24.15
_2THETA = 48.3
_KHI = 35
_PHI = 0
_X = 10.5
_Y = -26
_Z = 0.5
_DETECTORSLIT = out
_TIMESTARTED = 1697.892
_KV = 30
_MA = 40
_RANGE_WL = 2.2897
_3DPLANE = 0
_V4_PSD2THETA = 9999
_V4_PSDCHANNEL1 = 0
_V4_PSDAPERTURE = 6.075
_V4_PSDTYPE = 5
_V4_PSDFIXED = 0
_V4_COUNTERS_MASK = 1
_V4_DRIVES_MASK = 0
_V4_ENCODERS_MASK = 0
_2THETACOUNTS = 1
; 2THETA	Cnt2_D1
0.000000	746.827
5.000000	649.653
10	644.48
15	491.307
20	596.133
25	545.96
30	561.787
35	292.613
40	642.44
45	439.267
50	456.093
55	339.92
60	295.747
65	274.573
70	175.4
75	183.227
80	361.053
85	352.88
90	418.707
95	402.533
100	492.36
105	357.187
110	413.013
115	339.84
120	362.667
125	555.493
130	551.32
135	634.147
140	768.973
145	893.8
150	997.627
155	1018.45
160	1205.28
165	1391.11
170	1092.93
175	1022.76
180	969.587
185	851.413
190	516.24
195	466.067
200	245.893
205	514.72
210	565.547
215	445.373
220	432.2
225	328.027
230	456.853
235	453.68
240	441.507
245	427.333
250	584.16
255	494.987
260	695.813
265	603.64
270	649.467
275	500.293
280	670.12
285	655.947
290	634.773
295	536.6
300	593.427
305	714.253
310	955.08
315	658.907
320	673.733
325	857.56
330	804.387
335	1004.21
340	819.04
345	1015.87
350	1302.69
355	1199.52

; Data for range 25
_DRIVE = COUPLED
_STEPTIME = 3
_STEPSIZE = 5
_STEPMODE = C
_START = 0
_THETA = 24.15
_2THETA = 48.3
_KHI = 40
_PHI = 0
_X = 10.5
_Y = -26
_Z = 0.5
_DETECTORSLIT = out
_TIMESTARTED = 1940.187
_KV = 30
_MA = 40
_RANGE_WL = 2.2897
_3DPLANE = 0
_V4_PSD2THETA = 9999
_V4_PSDCHANNEL1 = 0
_V4_PSDAPERTURE = 6.075
_V4_PSDTYPE = 5
_V4_PSDFIXED = 0
_V4_COUNTERS_MASK = 1
_V4_DRIVES_MASK = 0
_V4_ENCODERS_MASK = 0
_2THETACOUNTS = 1
; 2THETA	Cnt2_D1
0.000000	809.6
5.000000	936.2
10	861.8
15	917.4
20	832.0
25	914.6
30	812.2
35	765.8
40	1002.4
45	778.0
50	595.6
55	597.2
60	670.8
65	648.4
70	405.0
75	515.6
80	367.2
85	584.8
90	414.4
95	729.0
100	563.6
105	626.2
110	523.8
115	830.4
120	828.0
125	784.6
130	861.2
135	1053.8
140	1144.4
145	1383.0
150	1178.6
155	1494.2
160	1431.8
165	1426.4
170	1654.0
175	1340.6
180	1123.2
185	696.8
190	810.4
195	575.0
200	546.6
205	624.2
210	593.8
215	497.4
220	535.0
225	467.6
230	659.2
235	707.8
240	705.4
245	581.0
250	547.6
255	556.2
260	701.8
265	591.4
270	547.0
275	581.6
280	799.2
285	766.8
290	762.4
295	865.0
300	692.6
305	933.2
310	726.8
315	761.4
320	725.0
325	662.6
330	695.2
335	732.8
340	732.4
345	1018.0
350	1032.6
355	1131.2

; Data for range 28
_DRIVE = COUPLED
_STEPTIME = 3
_STEPSIZE = 5
_STEPMODE = C
_START = 0
_THETA = 24.15
_2THETA = 48.3
_KHI = 45
_PHI = 0
_X = 10.5
_Y = -26
_Z = 0.5
_DETECTORSLIT = out
_TIMESTARTED = 2182.327
_KV = 30
_MA = 40
_RANGE_WL = 2.2897
_3DPLANE = 0
_V4_PSD2THETA = 9999
_V4_PSDCHANNEL1 = 0
_V4_PSDAPERTURE = 6.075
_V4_PSDTYPE = 5
_V4_PSDFIXED = 0
_V4_COUNTERS_MASK = 1
_V4_DRIVES_MASK = 0
_V4_ENCODERS_MASK = 0
_2THETACOUNTS = 1
; 2THETA	Cnt2_D1
0.000000	981.613
5.000000	1164.23
10	1047.84
15	1021.45
20	1111.07
25	1148.68
30	1125.29
35	1027.91
40	1022.52
45	873.133
50	629.747
55	611.36
60	702.973
65	625.587
70	576.2
75	494.813
80	544.427
85	583.04
90	240.653
95	446.267
100	682.88
105	580.493
110	712.107
115	736.72
120	939.333
125	951.947
130	968.56
135	1259.17
140	1445.79
145	1631.4
150	1630.01
155	1378.63
160	1844.24
165	1654.85
170	1658.47
175	1511.08
180	1268.69
185	1173.31
190	800.92
195	787.533
200	740.147
205	762.76
210	870.373
215	809.987
220	855.6
225	909.213
230	734.827
235	775.44
240	739.053
245	730.667
250	640.28
255	723.893
260	712.507
265	706.12
270	700.733
275	843.347
280	718.96
285	987.573
290	713.187
295	781.8
300	763.413
305	810.027
310	781.64
315	1026.25
320	861.867
325	829.48
330	852.093
335	846.707
340	747.32
345	1011.93
350	1034.55
355	1331.16

; Data for range 31
_DRIVE = COUPLED
_STEPTIME = 3
_STEPSIZE = 5
_STEPMODE = C
_START = 0
_THETA = 24.15
_2THETA = 48.3
_KHI = 50
_PHI = 0
_X = 10.5
_Y = -26
_Z = 0.5
_DETECTORSLIT = out
_TIMESTARTED = 2423.761
_KV = 30
_MA = 40
_RANGE_WL = 2.2897
_3DPLANE = 0
_V4_PSD2THETA = 9999
_V4_PSDCHANNEL1 = 0
_V4_PSDAPERTURE = 6.075
_V4_PSDTYPE = 5
_V4_PSDFIXED = 0
_V4_COUNTERS_MASK = 1
_V4_DRIVES_MASK = 0
_V4_ENCODERS_MASK = 0
_2THETACOUNTS = 1
; 2THETA	Cnt2_D1
0.000000	1431.83
5.000000	1367.65
10	1662.48
15	1293.31
20	1636.13
25	1610.96
30	1378.79
35	1483.61
40	1346.44
45	1421.27
50	1092.09
55	1035.92
60	1085.75
65	857.573
70	1050.4
75	850.227
80	963.053
85	999.88
90	912.707
95	856.533
100	887.36
105	1086.19
110	1092.01
115	980.84
120	1252.67
125	1362.49
130	1430.32
135	1833.15
140	1898.97
145	2224.8
150	2219.63
155	2472.45
160	2334.28
165	2509.11
170	2289.93
175	1972.76
180	1889.59
185	1746.41
190	1641.24
195	1305.07
200	1420.89
205	1429.72
210	1300.55
215	1259.37
220	1205.2
225	1197.03
230	1011.85
235	1175.68
240	946.507
245	951.333
250	1057.16
255	951.987
260	818.813
265	922.64
270	927.467
275	1060.29
280	970.12
285	982.947
290	908.773
295	879.6
300	936.427
305	877.253
310	936.08
315	1041.91
320	1021.73
325	1045.56
330	1174.39
335	1166.21
340	1175.04
345	1222.87
350	1416.69
355	1604.52

; Data for range 34
_DRIVE = COUPLED
_STEPTIME = 3
_STEPSIZE = 5
_STEPMODE = C
_START = 0
_THETA = 24.15
_2THETA = 48.3
_KHI = 55
_PHI = 0
_X = 10.5
_Y = -26
_Z = 0.5
_DETECTORSLIT = out
_TIMESTARTED = 2665.932
_KV = 30
_MA = 40
_RANGE_WL = 2.2897
_3DPLANE = 0
_V4_PSD2THETA = 9999
_V4_PSDCHANNEL1 = 0
_V4_PSDAPERTURE = 6.075
_V4_PSDTYPE = 5
_V4_PSDFIXED = 0
_V4_COUNTERS_MASK = 1
_V4_DRIVES_MASK = 0
_V4_ENCODERS_MASK = 0
_2THETACOUNTS = 1
; 2THETA	Cnt2_D1
0.000000	1997.53
5.000000	2123.07
10	2117.6
15	2144.13
20	2043.67
25	2119.2
30	1831.73
35	1690.27
40	1715.8
45	1424.33
50	1303.87
55	1071.4
60	1078.93
65	939.467
70	1148.0
75	1093.53
80	1035.07
85	792.6
90	782.133
95	1067.67
100	1009.2
105	1025.73
110	1124.27
115	1166.8
120	1407.33
125	1395.87
130	1648.4
135	1972.93
140	2328.47
145	2586.0
150	2995.53
155	2966.07
160	3168.6
165	3392.13
170	3202.67
175	3119.2
180	2847.73
185	2658.27
190	2388.8
195	2125.33
200	2095.87
205	1981.4
210	1923.93
215	1677.47
220	1394.0
225	1370.53
230	1283.07
235	1104.6
240	1075.13
245	1104.67
250	1079.2
255	1091.73
260	1142.27
265	753.8
270	948.333
275	765.867
280	807.4
285	990.933
290	834.467
295	974.0
300	986.533
305	936.067
310	1203.6
315	1210.13
320	1125.67
325	1224.2
330	1218.73
335	1431.27
340	1535.8
345	1646.33
350	1703.87
355	1893.4

; Data for range 37
_DRIVE = COUPLED
_STEPTIME = 3
_STEPSIZE = 5
_STEPMODE = C
_START = 0
_THETA = 24.15
_2THETA = 48.3
_KHI = 60
_PHI = 0
_X = 10.5
_Y = -26
_Z = 0.5
[...]
_PHI = 0
_X = 10.5
_Y = -26
_Z = 0.5
_DETECTORSLIT = out
_TIMESTARTED = 17797.1
_KV = 30
_MA = 40
_RANGE_WL = 2.2897
_3DPLANE = 0
_V4_PSD2THETA = 9999
_V4_PSDCHANNEL1 = 0
_V4_PSDAPERTURE = 6.075
_V4_PSDTYPE = 5
_V4_PSDFIXED = 0
_V4_COUNTERS_MASK = 1
_V4_DRIVES_MASK = 0
_V4_ENCODERS_MASK = 0
_2THETACOUNTS = 1
; 2THETA	Cnt2_D1
0.000000	1554.77
5.000000	1408.55
10	1571.32
15	1274.09
20	1347.87
25	1357.64
30	1144.41
35	1063.19
40	731.96
45	690.733
50	837.507
55	761.28
60	718.053
65	545.827
70	663.6
75	538.373
80	660.147
85	419.92
90	689.693
95	697.467
100	457.24
105	885.013
110	730.787
115	585.56
120	880.333
125	1004.11
130	781.88
135	857.653
140	1013.43
145	1006.2
150	962.973
155	1109.75
160	804.52
165	845.293
170	884.067
175	906.84
180	923.613
185	1056.39
190	1023.16
195	1017.93
200	934.707
205	953.48
210	864.253
215	831.027
220	765.8
225	702.573
230	731.347
235	549.12
240	603.893
245	640.667
250	655.44
255	507.213
260	421.987
265	600.76
270	732.533
275	524.307
280	553.08
285	755.853
290	595.627
295	721.4
300	634.173
305	632.947
310	753.72
315	768.493
320	989.267
325	925.04
330	1021.81
335	1111.59
340	1171.36
345	1399.13
350	1330.91
355	1289.68

; Data for range 223
_DRIVE = COUPLED
_STEPTIME = 3
_STEPSIZE = 5
_STEPMODE = C
_START = 0
_THETA = 45.11
_2THETA = 90.22
_KHI = 50
_PHI = 0
_X = 10.5
_Y = -26
_Z = 0.5
_DETECTORSLIT = out
_TIMESTARTED = 18038.76
_KV = 30
_MA = 40
_RANGE_WL = 2.2897
_3DPLANE = 0
_V4_PSD2THETA = 9999
_V4_PSDCHANNEL1 = 0
_V4_PSDAPERTURE = 6.075
_V4_PSDTYPE = 5
_V4_PSDFIXED = 0
_V4_COUNTERS_MASK = 1
_V4_DRIVES_MASK = 0
_V4_ENCODERS_MASK = 0
_2THETACOUNTS = 1
; 2THETA	Cnt2_D1
0.000000	811.533
5.000000	866.067
10	897.6
15	963.133
20	752.667
25	513.2
30	521.733
35	569.267
40	506.8
45	429.333
50	430.867
55	344.4
60	464.933
65	448.467
70	482.0
75	157.533
80	419.067
85	320.6
90	386.133
95	309.667
100	462.2
105	405.733
110	689.267
115	609.8
120	688.333
125	761.867
130	729.4
135	736.933
140	937.467
145	1074.0
150	758.533
155	1071.07
160	731.6
165	622.133
170	382.667
175	540.2
180	407.733
185	468.267
190	588.8
195	636.333
200	513.867
205	553.4
210	409.933
215	422.467
220	485.0
225	482.533
230	444.067
235	393.6
240	476.133
245	552.667
250	505.2
255	395.733
260	420.267
265	592.8
270	425.333
275	422.867
280	592.4
285	546.933
290	559.467
295	564.0
300	435.533
305	518.067
310	372.6
315	422.133
320	591.667
325	707.2
330	550.733
335	541.267
340	802.8
345	917.333
350	949.867
355	929.4

; Data for range 226
_DRIVE = COUPLED
_STEPTIME = 3
_STEPSIZE = 5
_STEPMODE = C
_START = 0
_THETA = 45.11
_2THETA = 90.22
_KHI = 55
_PHI = 0
_X = 10.5
_Y = -26
_Z = 0.5
_DETECTORSLIT = out
_TIMESTARTED = 18281.93
_KV = 30
_MA = 40
_RANGE_WL = 2.2897
_3DPLANE = 0
_V4_PSD2THETA = 9999
_V4_PSDCHANNEL1 = 0
_V4_PSDAPERTURE = 6.075
_V4_PSDTYPE = 5
_V4_PSDFIXED = 0
_V4_COUNTERS_MASK = 1
_V4_DRIVES_MASK = 0
_V4_ENCODERS_MASK = 0
_2THETACOUNTS = 1
; 2THETA	Cnt2_D1
0.000000	578.947
5.000000	478.893
10	515.84
15	640.787
20	572.733
25	397.68
30	568.627
35	487.573
40	415.52
45	385.467
50	303.413
55	389.36
60	282.307
65	174.253
70	418.2
75	406.147
80	245.093
85	306.04
90	370.987
95	240.933
100	387.88
105	419.827
110	476.773
115	635.72
120	717.667
125	660.613
130	878.56
135	976.507
140	919.453
145	819.4
150	931.347
155	823.293
160	635.24
165	552.187
170	564.133
175	399.08
180	317.027
185	472.973
190	241.92
195	326.867
200	293.813
205	315.76
210	391.707
215	281.653
220	331.6
225	455.547
230	316.493
235	346.44
240	255.387
245	304.333
250	401.28
255	270.227
260	343.173
265	342.12
270	549.067
275	217.013
280	396.96
285	437.907
290	192.853
295	375.8
300	256.747
305	277.693
310	331.64
315	293.587
320	113.533
325	407.48
330	230.427
335	453.373
340	158.32
345	467.267
350	435.213
355	435.16

; Data for range 229
_DRIVE = COUPLED
_STEPTIME = 3
_STEPSIZE = 5
_STEPMODE = C
_START = 0
_THETA = 45.11
_2THETA = 90.22
_KHI = 60
_PHI = 0
_X = 10.5
_Y = -26
_Z = 0.5
_DETECTORSLIT = out
_TIMESTARTED = 18523.79
_KV = 30
_MA = 40
_RANGE_WL = 2.2897
_3DPLANE = 0
_V4_PSD2THETA = 9999
_V4_PSDCHANNEL1 = 0
_V4_PSDAPERTURE = 6.075
_V4_PSDTYPE = 5
_V4_PSDFIXED = 0
_V4_COUNTERS_MASK = 1
_V4_DRIVES_MASK = 0
_V4_ENCODERS_MASK = 0
_2THETACOUNTS = 1
; 2THETA	Cnt2_D1
0.000000	562.333
5.000000	506.667
10	579.0
15	555.333
20	357.667
25	450.0
30	417.333
35	347.667
40	274.0
45	351.333
50	325.667
55	335.0
60	105.333
65	340.667
70	386.0
75	176.333
80	381.667
85	181.0
90	303.333
95	207.667
100	479.0
105	534.333
110	573.667
115	775.0
120	735.333
125	747.667
130	873.0
135	1012.33
140	864.667
145	981.0
150	748.333
155	698.667
160	499.0
165	668.333
170	344.667
175	424.0
180	332.333
185	327.667
190	207.0
195	217.333
200	365.667
205	404.0
210	344.333
215	35.6667
220	85.0
225	52.3333
230	51.6667
235	0
240	116.333
245	220.667
250	76.0
255	11.3333
260	164.667
265	231.0
270	230.333
275	83.6667
280	170.0
285	224.333
290	257.667
295	126.0
300	199.333
305	0
310	25.0
315	0
320	0
325	9.0
330	23.3333
335	0
340	9.0
345	27.3333
350	63.6667
355	119.0

; Data for range 232
_DRIVE = COUPLED
_STEPTIME = 3
_STEPSIZE = 5
_STEPMODE = C
_START = 0
_THETA = 45.11
_2THETA = 90.22
_KHI = 65
_PHI = 0
_X = 10.5
_Y = -26
_Z = 0.5
_DETECTORSLIT = out
_TIMESTARTED = 18765.37
_KV = 30
_MA = 40
_RANGE_WL = 2.2897
_3DPLANE = 0
_V4_PSD2THETA = 9999
_V4_PSDCHANNEL1 = 0
_V4_PSDAPERTURE = 6.075
_V4_PSDTYPE = 5
_V4_PSDFIXED = 0
_V4_COUNTERS_MASK = 1
_V4_DRIVES_MASK = 0
_V4_ENCODERS_MASK = 0
_2THETACOUNTS = 1
; 2THETA	Cnt2_D1
0.000000	226.92
5.000000	342.84
10	412.76
15	282.68
20	300.6
25	371.52
30	389.44
35	285.36
40	234.28
45	119.2
50	161.12
55	197.04
60	160.96
65	101.88
70	173.8
75	231.72
80	126.64
85	302.56
90	397.48
95	340.4
100	444.32
105	475.24
110	507.16
115	793.08
120	856.0
125	985.92
130	923.84
135	928.76
140	932.68
145	950.6
150	803.52
155	752.44
160	806.36
165	543.28
170	347.2
175	320.12
180	322.04
185	355.96
190	234.88
195	254.8
200	279.72
205	399.64
210	267.56
215	373.48
220	310.4
225	97.32
230	158.24
235	173.16
240	134.08
245	171.0
250	16.92
255	321.84
260	254.76
265	378.68
270	200.6
275	468.52
280	242.44
285	187.36
290	170.28
295	248.2
300	174.12
305	315.04
310	0
315	55.88
320	0
325	69.72
330	0
335	70.56
340	31.48
345	18.4
350	231.32
355	249.24

; Data for range 235
_DRIVE = COUPLED
_STEPTIME = 3
_STEPSIZE = 5
_STEPMODE = C
_START = 0
_THETA = 45.11
_2THETA = 90.22
_KHI = 70
_PHI = 0
_X = 10.5
_Y = -26
_Z = 0.5
_DETECTORSLIT = out
_TIMESTARTED = 19007.92
_KV = 30
_MA = 40
_RANGE_WL = 2.2897
_3DPLANE = 0
_V4_PSD2THETA = 9999
_V4_PSDCHANNEL1 = 0
_V4_PSDAPERTURE = 6.075
_V4_PSDTYPE = 5
_V4_PSDFIXED = 0
_V4_COUNTERS_MASK = 1
_V4_DRIVES_MASK = 0
_V4_ENCODERS_MASK = 0
_2THETACOUNTS = 1
; 2THETA	Cnt2_D1
0.000000	250.147
5.000000	223.293
10	369.44
15	258.587
20	268.733
25	185.88
30	216.027
35	37.1733
40	34.32
45	0
50	65.6133
55	0
60	0
65	16.0533
70	0
75	30.3467
80	82.4933
85	206.64
90	102.787
95	158.933
100	98.08
105	385.227
110	479.373
115	569.52
120	734.667
125	901.813
130	734.96
135	696.107
140	888.253
145	737.4
150	830.547
155	547.693
160	470.84
165	360.987
170	346.133
175	112.28
180	316.427
185	322.573
190	258.72
195	380.867
200	296.013
205	283.16
210	332.307
215	367.453
220	189.6
225	308.747
230	159.893
235	144.04
240	299.187
245	225.333
250	230.48
255	135.627
260	298.773
265	318.92
270	398.067
275	250.213
280	320.36
285	311.507
290	231.653
295	149.8
300	137.947
305	125.093
310	156.24
315	135.387
320	53.5333
325	0
330	0
335	37.9733
340	0
345	70.2667
350	55.4133
355	0

; Data for range 238
_DRIVE = COUPLED
_STEPTIME = 3
_STEPSIZE = 5
_STEPMODE = C
_START = 0
_THETA = 45.11
_2THETA = 90.22
_KHI = 75
_PHI = 0
_X = 10.5
_Y = -26
_Z = 0.5
_DETECTORSLIT = out
_TIMESTARTED = 19250.55
_KV = 30
_MA = 40
_RANGE_WL = 2.2897
_3DPLANE = 0
_V4_PSD2THETA = 9999
_V4_PSDCHANNEL1 = 0
_V4_PSDAPERTURE = 6.075
_V4_PSDTYPE = 5
_V4_PSDFIXED = 0
_V4_COUNTERS_MASK = 1
_V4_DRIVES_MASK = 0
_V4_ENCODERS_MASK = 0
_2THETACOUNTS = 1
; 2THETA	Cnt2_D1
0.000000	178.533
5.000000	251.067
10	234.6
15	462.133
20	288.667
25	298.2
30	216.733
35	102.267
40	39.8
45	224.333
50	95.8667
55	87.4
60	18.9333
65	56.4667
70	47.0
75	99.5333
80	87.0667
85	75.6
90	225.133
95	349.667
100	132.2
105	396.733
110	641.267
115	649.8
120	830.333
125	794.867
130	799.4
135	822.933
140	905.467
145	909.0
150	810.533
155	799.067
160	558.6
165	480.133
170	406.667
175	380.2
180	532.733
185	553.267
190	520.8
195	379.333
200	510.867
205	376.4
210	240.933
215	536.467
220	396.0
225	277.533
230	286.067
235	252.6
240	137.133
245	72.6667
250	319.2
255	496.733
260	650.267
265	541.8
270	623.333
275	529.867
280	439.4
285	563.933
290	397.467
295	472.0
300	315.533
305	383.067
310	210.6
315	162.133
320	115.667
325	45.2
330	89.7333
335	52.2667
340	22.8
345	11.3333
350	0
355	71.4